Energy(MeV)	LaCl\d3\n:Ce(SEB 347)	Uncertainty	Energy (MeV)	LaBr\d3\n:Ce (Q489)	Uncertainty	Energy (MeV)	LaBr\d3\n:Ce (Q491)	Uncertainty	Energy (MeV)	LaBr\d3\n:Ce (2987)	Uncertainty
0.10300	0.61236	9.8594	0.10000	4.5304	0.44612	0.10000	4.5757	0.53171	0.10100	6.2637	0.71573
0.10900	1.0786	16.288	0.10200	3.4681	0.34150	0.10200	3.5184	0.40883	0.10400	6.6619	0.76123
0.11400	0.95743	13.500	0.10500	4.2030	0.41386	0.10500	4.2276	0.49124	0.10800	7.1931	0.82193
0.12000	1.2051	15.788	0.10700	4.2089	0.41444	0.10700	4.2314	0.49169	0.11100	7.2850	0.83243
0.12600	1.4854	17.974	0.11000	4.3750	0.43081	0.11000	4.3483	0.50527	0.11500	6.7812	0.77486
0.13200	1.5015	16.668	0.11200	4.8616	0.47872	0.11200	3.9615	0.46032	0.11900	5.6983	0.65112
0.13800	1.8341	18.526	0.11500	4.7964	0.47231	0.11500	4.7927	0.55692	0.12200	6.4282	0.73452
0.14500	2.2166	20.173	0.11800	5.6894	0.56024	0.11800	5.2428	0.60922	0.12600	7.5927	0.86759
0.15100	2.2606	18.313	0.12100	6.4449	0.63464	0.12100	5.9611	0.69269	0.13000	8.2749	0.94555
0.15800	2.6479	18.802	0.12400	6.7402	0.66371	0.12400	6.2530	0.72661	0.13400	8.6608	0.98964
0.16400	2.7973	17.066	0.12700	7.5145	0.73996	0.12700	7.5489	0.87719	0.13800	8.8738	1.0140
0.17200	3.1913	16.280	0.13000	7.7781	0.76592	0.13000	7.8622	0.91360	0.14200	9.0850	1.0381
0.17900	3.7813	15.509	0.13300	8.1795	0.80545	0.13300	7.7176	0.89680	0.14500	8.9723	1.0252
0.18600	4.9534	15.366	0.13600	8.3346	0.82072	0.13600	8.2350	0.95693	0.14900	9.5380	1.0899
0.19300	6.1443	12.921	0.14000	9.1196	0.89803	0.14000	9.0471	1.0513	0.15300	9.5614	1.0926
0.20100	8.9214	9.8640	0.14300	9.1413	0.90016	0.14300	9.0430	1.0508	0.15800	10.284	1.1751
0.20900	16.398	2.4528	0.14700	9.3036	0.91615	0.14700	9.4015	1.0925	0.16200	10.951	1.2514
0.21700	14.489	2.1613	0.15000	9.8157	0.96658	0.15000	9.3856	1.0906	0.16600	10.988	1.2556
0.22400	14.331	2.1321	0.15400	10.336	1.0178	0.15400	10.453	1.2147	0.17000	11.543	1.3190
0.23300	14.593	2.1691	0.15700	11.068	1.0899	0.15700	10.655	1.2381	0.17400	10.385	1.1866
0.24100	12.397	1.8385	0.16100	11.503	1.1327	0.16100	11.924	1.3856	0.17900	10.297	1.1766
0.25000	10.229	1.5154	0.16400	11.526	1.1350	0.16400	12.048	1.4000	0.18300	9.0009	1.0285
0.25800	8.8219	1.3064	0.16800	11.378	1.1204	0.16800	12.109	1.4071	0.18700	9.5433	1.0905
0.26700	8.8900	1.3154	0.17100	11.493	1.1317	0.17100	11.492	1.3355	0.19200	9.9525	1.1373
0.27600	8.4972	1.2554	0.17500	10.316	1.0159	0.17500	10.567	1.2279	0.19600	9.1987	1.0511
0.28500	9.4235	1.3916	0.17900	10.106	0.99523	0.17900	10.061	1.1692	0.20000	10.520	1.2021
0.29400	7.8383	1.1562	0.18300	9.8309	0.96809	0.18300	10.100	1.1737	0.20500	10.978	1.2545
0.30400	8.7514	1.2906	0.18700	10.486	1.0326	0.18700	10.272	1.1937	0.21000	10.180	1.1633
0.31300	8.7291	1.2872	0.19100	10.683	1.0520	0.19100	11.028	1.2815	0.21400	10.274	1.1740
0.32300	11.105	1.6360	0.19500	10.865	1.0700	0.19500	11.229	1.3049	0.21900	10.143	1.1591
0.33200	10.997	1.6197	0.19900	10.915	1.0749	0.19900	11.241	1.3063	0.22300	9.8078	1.1207
0.34300	10.336	1.5220	0.20300	10.938	1.0771	0.20300	10.673	1.2402	0.22800	8.7446	0.99924
0.35300	9.6274	1.4181	0.20800	10.675	1.0513	0.20800	10.872	1.2634	0.23300	8.6855	0.99249
0.36300	9.6226	1.4165	0.21200	10.447	1.0288	0.21200	10.639	1.2363	0.23800	8.8789	1.0146
0.37300	17.854	2.6277	0.21700	10.348	1.0190	0.21700	10.496	1.2197	0.24300	9.9961	1.1422
0.38400	14.746	2.1696	0.22100	9.9860	0.98340	0.22100	8.9358	1.0384	0.24700	10.770	1.2307
0.39500	9.3205	1.3717	0.22600	8.7476	0.86145	0.22600	7.6786	0.89231	0.25200	9.7148	1.1101
0.40600	9.4769	1.3947	0.23000	8.6326	0.85012	0.23000	8.5146	0.98947	0.25700	9.4584	1.0808
0.41700	9.7396	1.4329	0.23500	10.070	0.99166	0.23500	8.8848	1.0325	0.26200	8.5319	0.97493
0.42800	9.7581	1.4353	0.23900	10.300	1.0143	0.23900	10.199	1.1852	0.26700	7.9107	0.90395
0.43900	9.1491	1.3458	0.24400	11.222	1.1051	0.24400	10.654	1.2381	0.27200	7.5077	0.85790
0.45100	8.9830	1.3213	0.24900	10.006	0.98536	0.24900	10.340	1.2016	0.27700	7.5057	0.85767
0.46200	8.4052	1.2362	0.25400	8.9422	0.88064	0.25400	7.4604	0.86698	0.28200	7.6748	0.87699
0.47400	9.5278	1.4013	0.25900	7.4832	0.73695	0.25900	6.5337	0.75928	0.28800	8.0607	0.92110
0.48600	8.8638	1.3038	0.26400	6.6608	0.65596	0.26400	6.2722	0.72890	0.29300	7.7163	0.88174
0.49900	9.9672	1.4660	0.26900	6.5849	0.64849	0.26900	6.1921	0.71958	0.29800	8.6730	0.99106
0.51100	8.6132	1.2667	0.27400	6.6045	0.65042	0.27400	6.2306	0.72406	0.30300	7.9938	0.91345
0.52400	8.2452	1.2126	0.27900	6.9712	0.68655	0.27900	6.6691	0.77503	0.30900	7.9578	0.90934
0.53600	7.1809	1.0561	0.28500	7.8511	0.77321	0.28500	7.1849	0.83498	0.31400	6.6894	0.76440
0.54900	7.2502	1.0663	0.29000	7.9247	0.78046	0.29000	8.1081	0.94227	0.31900	7.6972	0.87956
0.56100	9.0243	1.3273	0.29600	8.0563	0.79342	0.29600	8.2650	0.96051	0.32500	8.2796	0.94612
0.57400	10.393	1.9200	0.30100	7.8689	0.77497	0.30100	7.2962	0.84792	0.33000	9.0069	1.0292
0.58700	8.8295	1.6312	0.30700	7.1447	0.70365	0.30700	7.1409	0.82988	0.33600	10.059	1.1494
0.60100	8.2893	1.5314	0.31200	7.0771	0.69699	0.31200	7.0448	0.81871	0.34100	10.307	1.1777
0.61400	8.3955	1.5511	0.31800	7.8942	0.77747	0.31800	7.3358	0.85253	0.34700	10.664	1.2186
0.62800	7.5855	1.4014	0.32300	8.2275	0.81030	0.32300	8.5165	0.98975	0.35300	10.695	1.2222
0.64200	7.5507	1.3950	0.32900	9.4317	0.92892	0.32900	9.8526	1.1450	0.35800	10.690	1.2216
0.65600	6.4843	1.1980	0.33500	9.9369	0.97868	0.33500	10.392	1.2078	0.36400	10.962	1.2526
0.67000	6.7958	1.2556	0.34100	10.046	0.98943	0.34100	10.420	1.2110	0.37000	11.057	1.2635
0.68400	6.6830	1.2347	0.34700	10.090	0.99375	0.34700	10.548	1.2259	0.37600	10.683	1.2207
0.69800	7.3458	1.3572	0.35300	10.345	1.0189	0.35300	10.783	1.2531	0.38100	10.269	1.1734
0.71300	7.0471	1.3020	0.35900	11.078	1.0911	0.35900	11.142	1.2950	0.38700	9.4216	1.0766
0.72800	5.9992	1.1084	0.36600	10.357	1.0201	0.36600	11.348	1.3189	0.39300	9.1943	1.0507
0.74300	5.5616	1.0276	0.37200	10.241	1.0087	0.37200	10.691	1.2425	0.39900	8.8648	1.0130
0.75700	5.7337	1.0595	0.37800	9.8937	0.97447	0.37800	10.389	1.2074	0.40500	8.7260	0.99715
0.77300	5.0916	0.94083	0.38400	9.0948	0.89580	0.38400	9.5210	1.1066	0.41100	8.6624	0.98989
0.78800	3.9743	0.73422	0.39100	8.9155	0.87815	0.39100	9.2630	1.0766	0.41700	8.7760	1.0029
0.80400	4.7357	0.87488	0.39700	9.1651	0.90273	0.39700	9.1181	1.0597	0.42300	9.4055	1.0748
0.81900	4.1931	0.77465	0.40400	8.8056	0.86733	0.40400	8.7732	1.0197	0.42900	9.4607	1.0811
0.83500	3.8747	0.71583	0.41000	9.2248	0.90863	0.41000	9.1346	1.0617	0.43500	9.5362	1.0898
0.85100	3.8584	0.71281	0.41700	9.0367	0.89012	0.41700	8.8163	1.0247	0.44200	9.3886	1.0729
0.86700	2.9656	0.54788	0.42400	9.6488	0.95042	0.42400	9.3827	1.0905	0.44800	8.5231	0.97399
0.88300	3.7006	0.68366	0.43100	9.1859	0.90483	0.43100	8.8509	1.0287	0.45400	7.9867	0.91269
0.90000	3.2640	0.60300	0.43800	8.4452	0.83188	0.43800	8.4616	0.98349	0.46000	9.0013	1.0286
0.91600	2.9481	0.54465	0.44500	8.2441	0.81208	0.44500	8.3147	0.96642	0.46700	9.5927	1.0962
0.93300	3.4771	0.64238	0.45200	8.3294	0.82049	0.45200	8.2768	0.96203	0.47300	9.7832	1.1180
0.95000	3.1852	0.58846	0.45900	8.4640	0.83376	0.45900	7.4944	0.87109	0.47900	10.457	1.1951
0.96700	2.9339	0.54203	0.46600	9.8417	0.96949	0.46600	8.8010	1.0230	0.48600	10.433	1.1923
0.98400	2.8314	0.52310	0.47400	10.456	1.0301	0.47400	9.3986	1.0924	0.49200	10.347	1.1825
1.0020	2.6022	0.48075	0.48100	11.273	1.1105	0.48100	10.069	1.1704	0.49900	10.650	1.2171
1.0190	2.6632	0.49202	0.48800	10.193	1.0041	0.48800	9.1055	1.0584	0.50500	10.406	1.1892
1.0370	2.4053	0.44438	0.49500	10.653	1.0495	0.49500	9.5394	1.1088	0.51200	9.8834	1.1295
1.0540	1.8623	0.34406	0.50300	9.9060	0.97586	0.50300	9.6869	1.1260	0.51900	9.0345	1.0325
1.0720	2.0384	0.37660	0.51000	9.2336	0.90961	0.51000	9.0484	1.0517	0.52500	9.2341	1.0553
1.0900	2.0268	0.37446	0.51800	8.4171	0.82921	0.51800	8.4394	0.98098	0.53200	8.4825	0.96940
1.1090	2.0748	0.38332	0.52600	8.5330	0.84067	0.52600	8.5350	0.99213	0.53900	7.6278	0.87172
1.1270	2.0750	0.38336	0.53400	7.6388	0.75259	0.53400	7.8680	0.91461	0.54500	8.4653	0.96745
1.1460	1.9491	0.36010	0.54200	7.5979	0.74857	0.54200	7.5939	0.88275	0.55200	8.4366	0.96417
1.1640	1.9317	0.35688	0.55000	8.1771	0.80563	0.55000	8.3181	0.96695	0.55900	8.7588	1.0010
1.1830	1.8471	0.34125	0.55700	8.9433	0.88114	0.55700	9.0202	1.0486	0.56600	9.2963	1.0624
1.2020	1.8233	0.33687	0.56600	9.2344	0.90985	0.56600	9.5741	1.1130	0.57300	9.5469	1.0911
1.2210	1.7758	0.32810	0.57400	9.8985	0.97530	0.57400	9.6971	1.1273	0.58000	9.5891	1.0959
1.2400	1.6942	0.31301	0.58200	9.9813	0.98348	0.58200	9.7874	1.1378	0.58700	9.5752	1.0943
1.2600	1.6906	0.31235	0.59000	9.4072	0.92693	0.59000	9.2107	1.0708	0.59400	9.4390	1.0788
1.2790	1.6467	0.30424	0.59900	9.0373	0.89051	0.59900	8.4904	0.98708	0.60100	8.8714	1.0139
1.2990	1.6000	0.29562	0.60700	8.1612	0.80420	0.60700	7.4059	0.86100	0.60800	8.4699	0.96805
1.3190	1.5567	0.28762	0.61600	7.9330	0.78174	0.61600	7.1901	0.83594	0.61500	8.0799	0.92348
1.3390	1.5720	0.29044	0.62400	7.9080	0.77928	0.62400	7.4087	0.86136	0.62200	7.8701	0.89952
1.3590	1.3769	0.25439	0.63300	8.0845	0.79670	0.63300	7.1404	0.83019	0.62900	7.2662	0.83051
1.3800	1.4813	0.33662	0.64100	7.8690	0.77549	0.64100	6.9264	0.80533	0.63700	7.4154	0.84757
1.4000	1.3571	0.30839	0.65000	6.9045	0.68046	0.65000	6.3801	0.74183	0.64400	7.3418	0.83917
1.4210	1.3906	0.31601	0.65900	6.8083	0.67101	0.65900	6.1388	0.71378	0.65100	6.6788	0.76340
1.4420	1.3755	0.31256	0.66800	6.6691	0.65731	0.66800	6.0586	0.70448	0.65900	6.4888	0.74169
1.4630	1.2846	0.29193	0.67700	6.8905	0.67915	0.67700	6.0745	0.70634	0.66600	6.5093	0.74404
1.4840	1.2371	0.28112	0.68600	6.9778	0.68778	0.68600	6.0086	0.69870	0.67300	6.3201	0.72243
1.5060	1.2055	0.27395	0.69500	6.2443	0.61550	0.69500	6.2816	0.73046	0.68100	6.3119	0.72150
1.5270	1.1895	0.27032	0.70400	6.2204	0.61317	0.70400	6.2414	0.72581	0.68800	6.2365	0.71290
1.5490	1.1777	0.26763	0.71300	5.8318	0.57489	0.71300	5.8072	0.67534	0.69600	6.2587	0.71545
1.5700	1.1510	0.26158	0.72300	5.6269	0.55473	0.72300	5.6938	0.66217	0.70300	6.4175	0.73362
1.5920	1.1025	0.25054	0.73200	5.3371	0.52618	0.73200	5.2272	0.60793	0.71100	5.8082	0.66398
1.6140	1.0773	0.24481	0.74200	5.0667	0.49955	0.74200	4.9901	0.58039	0.71900	5.9301	0.67794
1.6370	1.0778	0.24494	0.75100	4.7147	0.46487	0.75100	4.8781	0.56738	0.72600	5.7678	0.65939
1.6590	1.0465	0.23783	0.76100	4.6819	0.46167	0.76100	4.7595	0.55361	0.73400	5.1504	0.58883
1.6820	1.0524	0.23917	0.77000	4.6075	0.45435	0.77000	4.6490	0.54078	0.74200	5.2562	0.60094
1.7040	1.0573	0.24030	0.78000	4.2883	0.42291	0.78000	4.4237	0.51459	0.74900	5.0124	0.57308
1.7270	1.0202	0.23187	0.79000	4.1146	0.40581	0.79000	4.3547	0.50659	0.75700	4.5985	0.52577
1.7500	0.98392	0.22362	0.80000	4.0747	0.40190	0.80000	4.0544	0.47169	0.76500	4.5307	0.51803
1.7730	0.97938	0.22259	0.81000	4.0594	0.40042	0.81000	3.9561	0.46028	0.77300	4.4612	0.51011
1.7960	0.95513	0.21708	0.82000	3.9605	0.39070	0.82000	3.8640	0.44959	0.78100	4.3727	0.50001
1.8200	0.85438	0.19419	0.83000	3.9635	0.39104	0.83000	3.9994	0.46537	0.78900	4.1361	0.47298
1.8430	0.91935	0.20896	0.84000	3.9243	0.38720	0.84000	3.9917	0.46451	0.79700	3.9882	0.45608
1.8670	0.87298	0.19842	0.85000	3.1770	0.31350	0.85000	3.5355	0.41146	0.80500	3.7487	0.42870
1.8910	0.84070	0.19109	0.86100	3.0842	0.30437	0.86100	3.2394	0.37702	0.81300	3.6788	0.42072
1.9150	0.84673	0.19247	0.87100	2.9445	0.29062	0.87100	2.9855	0.34749	0.82100	3.6398	0.41629
1.9390	0.82367	0.18723	0.88200	2.9730	0.29347	0.88200	3.0010	0.34933	0.82900	3.6568	0.41825
1.9640	0.81279	0.18476	0.89200	2.8816	0.28449	0.89200	2.8658	0.33363	0.83700	3.3123	0.37887
1.9880	0.74011	0.16824	0.90300	2.8255	0.27899	0.90300	2.9653	0.34525	0.84600	3.2358	0.37014
2.0130	0.73147	0.16628	0.91300	2.8105	0.27754	0.91300	2.8047	0.32658	0.85400	3.1824	0.36405
2.0380	0.75833	0.17240	0.92400	2.8493	0.28142	0.92400	2.8179	0.32816	0.86200	3.0473	0.34861
2.0880	0.74897	0.17029	0.93400	2.7380	0.27047	0.93400	2.7316	0.31814	0.87000	2.8247	0.32317
2.1390	0.69592	0.15824	0.94500	2.6998	0.26674	0.94500	2.6680	0.31078	0.87900	2.7750	0.31750
2.1900	0.65733	0.14948	0.95600	2.7487	0.27162	0.95600	2.6304	0.30643	0.88700	2.8303	0.32386
2.2420	0.60902	0.13852	0.96700	2.5928	0.25627	0.96700	2.5883	0.30158	0.89500	2.6813	0.30683
2.2950	0.56982	0.12962	0.97800	2.4334	0.24058	0.97800	2.4136	0.28126	0.90400	2.6484	0.30309
2.3480	0.53858	0.12254	0.99000	2.3850	0.23584	0.99000	2.4120	0.28112	0.91200	2.6602	0.30447
2.4020	0.49853	0.11346	1.0010	2.3271	0.30594	1.0010	2.4421	0.35465	0.92100	2.6422	0.30243
2.4560	0.46005	0.10473	1.0120	1.8711	0.24602	1.0120	2.4016	0.34880	0.92900	2.6252	0.30050
2.5110	0.42998	0.15450	1.0230	1.8463	0.24280	1.0230	2.2076	0.32068	0.93800	2.5314	0.28981
2.5670	0.40560	0.14574	1.0350	1.7775	0.23379	1.0350	2.2187	0.32233	0.94700	2.6315	0.30130
2.6230	0.37813	0.13587	1.0460	1.7621	0.23180	1.0460	2.2049	0.32037	0.95500	2.4724	0.28310
2.6800	0.35022	0.12584	1.0580	1.7121	0.22528	1.0580	2.0645	0.30002	0.96400	2.3150	0.26512
2.7380	0.32226	0.11579	1.0700	1.6710	0.21991	1.0700	2.0363	0.29598	0.97300	2.3662	0.27100
2.7960	0.29823	0.10716	1.0820	1.7407	0.22913	1.0820	2.1328	0.31006	0.98100	2.2986	0.26329
2.8550	0.27584	0.099115	1.0930	1.7369	0.22869	1.0930	2.0837	0.30297	0.99000	2.1652	0.24805
2.9140	0.25662	0.092207	1.1050	1.6995	0.22382	1.1050	2.1495	0.31261	0.99900	2.1480	0.24611
2.9740	0.23691	0.085126	1.1170	1.7237	0.22707	1.1170	2.1685	0.31544	1.0080	2.0968	0.24028
3.0350	0.22051	0.079235	1.1290	1.7012	0.22417	1.1290	2.1357	0.31075	1.0170	2.0815	0.23857
3.0960	0.20297	0.072930	1.1410	1.6290	0.21471	1.1410	2.0536	0.29886	1.0260	2.0595	0.23608
3.1580	0.18431	0.066227	1.1540	1.6218	0.21385	1.1540	2.0193	0.29397	1.0350	2.0232	0.23196
3.2210	0.16975	0.060996	1.1660	1.6503	0.21767	1.1660	2.0798	0.30285	1.0440	1.9824	0.22732
3.2840	0.15774	0.056679	1.1780	1.6485	0.21752	1.1780	2.0820	0.30327	1.0530	1.9068	0.21869
3.3470	0.14576	0.052374	1.1900	1.6048	0.21183	1.1900	2.0005	0.29148	1.0620	1.8900	0.21680
3.4120	0.13503	0.048520	1.2030	1.5865	0.20951	1.2030	1.9903	0.29010	1.0710	1.8775	0.21542
3.4770	0.12599	0.045272	1.2150	1.5621	0.20637	1.2150	1.9674	0.28686	1.0800	1.8669	0.21425
3.5420	0.11547	0.041491	1.2280	1.4795	0.19556	1.2280	1.9121	0.27891	1.0890	1.9713	0.22628
3.6080	0.10489	0.037689	1.2410	1.4713	0.19458	1.2410	1.8517	0.27022	1.0980	1.9119	0.21952
3.6750	0.095547	0.034333	1.2540	1.4768	0.19541	1.2540	1.8427	0.26902	1.1080	1.9509	0.22405
3.7430	0.086849	0.031207	1.2660	1.4433	0.19108	1.2660	1.7213	0.25142	1.1170	2.0541	0.23596
3.8110	0.080405	0.028892	1.2790	1.3906	0.18423	1.2790	1.6251	0.23749	1.1260	1.9267	0.22139
3.8790	0.073096	0.026266	1.2920	1.4027	0.18595	1.2920	1.6044	0.23459	1.1360	1.9140	0.22000
3.9490	0.066441	0.023874	1.3050	1.3924	0.18472	1.3050	1.5837	0.23170	1.1450	1.9930	0.22915
4.0190	0.061825	0.022216	1.3180	1.3127	0.17426	1.3180	1.4930	0.21857	1.1540	1.8975	0.21824
4.0890	0.056465	0.020290	1.3320	1.2728	0.16911	1.3320	1.4960	0.21915	1.1640	1.9197	0.22087
4.1600	0.051475	0.018497	1.3450	1.3004	0.17292	1.3450	1.4454	0.21189	1.1730	1.9276	0.22186
4.2320	0.047125	0.016934	1.3580	1.2427	0.16540	1.3580	1.4575	0.21382	1.1830	1.9158	0.22059
4.3040	0.042668	0.015332	1.3710	1.2262	0.16336	1.3710	1.2169	0.17867	1.1920	1.8789	0.21641
4.3770	0.038131	0.013702	1.3850	1.2442	0.16594	1.3850	1.2390	0.18207	1.2020	1.8285	0.21071
4.4510	0.034849	0.012523	1.3980	1.2000	0.16022	1.3980	1.1623	0.17094	1.2120	1.8001	0.20752
4.5250	0.032115	0.011540	1.4120	1.1595	0.15500	1.4120	1.1692	0.17214	1.2210	1.8570	0.21418
4.6000	0.028927	0.010395	1.4260	1.1558	0.15470	1.4260	1.2443	0.18339	1.2310	1.7602	0.20312
4.6760	0.026217	0.0094209	1.4400	1.2056	0.16159	1.4400	1.2890	0.19019	1.2410	1.8086	0.20881
4.7520	0.024141	0.0086750	1.4530	1.1688	0.15687	1.4530	1.2232	0.18069	1.2500	1.6313	0.18844
4.8280	0.021654	0.0077812	1.4670	1.1633	0.15637	1.4670	1.1901	0.17602	1.2600	1.5412	0.17813
4.9060	0.019539	0.0070213	1.4810	1.1416	0.15371	1.4810	1.2264	0.18163	1.2700	1.5416	0.17828
4.9840	0.017696	0.0063590	1.4950	1.1057	0.14913	1.4950	1.1727	0.17393	1.2800	1.5416	0.17839
5.0620	0.016257	0.0058418	1.5090	1.0874	0.14694	1.5090	1.1316	0.16809	1.2900	1.5103	0.17489
5.1410	0.014447	0.0051916	1.5240	1.0587	0.14335	1.5240	1.1603	0.17265	1.3000	1.4898	0.17264
5.2210	0.012915	0.0046411	1.5380	1.0403	0.14115	1.5380	1.1576	0.17253	1.3100	1.4042	0.16283
5.3020	0.011568	0.0041571	1.5530	1.0522	0.14310	1.5530	1.1269	0.16828	1.3200	1.3711	0.15911
5.3830	0.010599	0.0038089	1.5670	1.0466	0.14267	1.5670	1.1420	0.17087	1.3300	1.3552	0.15740
5.4640	0.0094351	0.0033906	1.5820	1.0377	0.14182	1.5820	1.1508	0.17257	1.3400	1.3124	0.15255
5.5470	0.0085086	0.0030576	1.5960	1.0340	0.14168	1.5960	1.1272	0.16939	1.3500	1.3109	0.15251
5.6290	0.0077188	0.0027738	1.6110	1.0093	0.13870	1.6110	1.1183	0.16846	1.3600	1.2931	0.15058
5.7130	0.0069298	0.0024903	1.6250	1.0442	0.14392	1.6250	1.1048	0.16682	1.3700	1.2889	0.15023
5.7970	0.0062526	0.0022470	1.6400	0.99898	0.13813	1.6400	1.0533	0.15948	1.3800	1.2490	0.14572
5.8820	0.0056396	0.0020267	1.6550	1.0045	0.13938	1.6550	1.0900	0.16552	1.3910	1.2570	0.14682
5.9670	0.0050624	0.0018193	1.6700	0.98822	0.13762	1.6700	1.0843	0.16515	1.4010	1.3120	0.15341
6.0530	0.0045312	0.0016284	1.6850	0.99510	0.13911	1.6850	1.0755	0.16434	1.4110	1.2460	0.14586
6.1400	0.0040786	0.0014657	1.7000	0.93555	0.13132	1.7000	1.0390	0.15932	1.4220	1.2272	0.14384
6.2270	0.0036340	0.0013060	1.7150	0.94450	0.13315	1.7150	0.99522	0.15315	1.4320	1.2437	0.14596
6.3150	0.0032195	0.0011570	1.7310	0.95788	0.13569	1.7310	1.0390	0.16054	1.4420	1.1616	0.13650
6.4030	0.0029152	0.0010476	1.7460	0.98497	0.14020	1.7460	1.0219	0.15853	1.4530	1.1569	0.13615
6.4920	0.0026253	0.00094348	1.7610	0.95393	0.13647	1.7610	1.0797	0.16821	1.4630	1.1433	0.13474
6.5820	0.0023241	0.00083526	1.7760	0.90322	0.12990	1.7760	0.98669	0.15441	1.4740	1.0811	0.12761
6.6720	0.0020819	0.00074819	1.7920	0.89935	0.13012	1.7920	0.97855	0.15391	1.4840	1.0734	0.12690
6.7630	0.0018785	0.00067512	1.8080	0.88381	0.12867	1.8080	0.91488	0.14466	1.4950	1.0471	0.12401
6.8550	0.0016774	0.00060285	1.8240	0.88769	0.13009	1.8240	0.90798	0.14437	1.5060	1.0321	0.12246
6.9470	0.0015155	0.00054468	1.8390	0.90792	0.13392	1.8390	0.91653	0.14653	1.5270	1.0778	0.12838
			1.8550	0.86661	0.12876	1.8550	0.83373	0.13413	1.5490	1.0721	0.12824
			1.8710	0.83237	0.12461	1.8710	0.81693	0.13228	1.5700	1.0482	0.12594
			1.8870	0.84106	0.12693	1.8870	0.85081	0.13871	1.5920	1.0214	0.12333
			1.9030	0.79301	0.12068	1.9030	0.83041	0.13636	1.6140	0.99814	0.12119
			1.9190	0.80037	0.12287	1.9190	0.82644	0.13673	1.6360	1.0069	0.12299
			1.9350	0.78226	0.12119	1.9350	0.71781	0.11970	1.6580	0.96788	0.11898
			1.9520	0.72672	0.11374	1.9520	0.70546	0.11868	1.6810	0.95009	0.11765
			1.9680	0.73369	0.11599	1.9680	0.68615	0.11644	1.7030	0.91570	0.11425
			1.9850	0.73825	0.11801	1.9850	0.71244	0.12207	1.7260	0.90215	0.11352
			2.0010	0.76505	0.15035	2.0010	0.69608	0.14337	1.7480	0.87661	0.11128
			2.0340	0.73979	0.14777	2.0340	0.67405	0.14092	1.7710	0.86956	0.11148
			2.0680	0.71805	0.14609	2.0680	0.65521	0.13930	1.7940	0.90262	0.11696
			2.1010	0.68380	0.14185	2.1010	0.62484	0.13523	1.8170	0.85870	0.11254
			2.1360	0.65706	0.13941	2.1360	0.61133	0.13508	1.8410	0.83245	0.11050
			2.1700	0.63365	0.13767	2.1700	0.59042	0.13335	1.8640	0.82332	0.11072
			2.2050	0.61356	0.13687	2.2050	0.58164	0.13462	1.8880	0.80185	0.10942
			2.2400	0.62212	0.14279	2.2400	0.57189	0.13592	1.9110	0.77124	0.10682
			2.2750	0.59481	0.14075	2.2750	0.55630	0.13604	1.9350	0.76132	0.10720
			2.3110	0.58588	0.14335	2.3110	0.53191	0.13422	1.9590	0.73311	0.10504
			2.3470	0.56365	0.14291	2.3470	0.52053	0.13583	1.9830	0.70149	0.10239
			2.3830	0.57139	0.15042	2.3830	0.50519	0.13660	2.0080	0.70324	0.10476
			2.4190	0.54461	0.14917	2.4190	0.48226	0.13540	2.0320	0.73329	0.11151
			2.4560	0.52936	0.15131	2.4560	0.45608	0.13337	2.0560	0.70621	0.10975
			2.4930	0.50130	0.14981	2.4930	0.43925	0.13404	2.0810	0.68197	0.10852
			2.5310	0.48124	0.15873	2.5310	0.42237	0.14074	2.1060	0.66035	0.10772
			2.5690	0.46809	0.15439	2.5690	0.41773	0.13919	2.1310	0.64676	0.10827
			2.6070	0.45363	0.14962	2.6070	0.41154	0.13713	2.1560	0.62231	0.10702
			2.6450	0.42661	0.14072	2.6450	0.38767	0.12918	2.1810	0.61205	0.10825
			2.6840	0.40460	0.13346	2.6840	0.37912	0.12633	2.2060	0.57728	0.10510
			2.7230	0.38926	0.12840	2.7230	0.36535	0.12174	2.2320	0.56725	0.10655
			2.7620	0.37478	0.12362	2.7620	0.35235	0.11741	2.2570	0.54943	0.10645
			2.8010	0.35850	0.11825	2.8010	0.33762	0.11250	2.2830	0.52580	0.10531
			2.8410	0.33885	0.11177	2.8410	0.31965	0.10652	2.3090	0.51297	0.10630
			2.8810	0.31758	0.10475	2.8810	0.30010	0.10000	2.3350	0.50181	0.10768
			2.9220	0.30441	0.10041	2.9220	0.28817	0.096027	2.3610	0.48658	0.10821
			2.9630	0.29288	0.096610	2.9630	0.27775	0.092554	2.3870	0.46914	0.10821
			3.0040	0.27043	0.089203	3.0040	0.25691	0.085609	2.4140	0.45662	0.10947
			3.0480	0.24557	0.081003	3.0480	0.23373	0.077887	2.4400	0.43895	0.10930
			3.0930	0.23049	0.076030	3.0930	0.21981	0.073247	2.4670	0.41945	0.10870
			3.1380	0.22110	0.072933	3.1380	0.21126	0.070400	2.4940	0.40431	0.10911
			3.1830	0.20699	0.068278	3.1830	0.19816	0.066034	2.5210	0.39064	0.11753
			3.2290	0.19992	0.065947	3.2290	0.19177	0.063906	2.5480	0.38079	0.11457
			3.2750	0.18679	0.061617	3.2750	0.17954	0.059829	2.5750	0.37263	0.11211
			3.3220	0.17619	0.058120	3.3220	0.16969	0.056547	2.6020	0.39297	0.11823
			3.3690	0.16854	0.055597	3.3690	0.16265	0.054203	2.6300	0.38052	0.11913
			3.4160	0.15960	0.052646	3.4160	0.15433	0.051429	2.6570	0.36890	0.11550
			3.4630	0.14908	0.049178	3.4630	0.14445	0.048139	2.6850	0.35427	0.11092
			3.5110	0.13817	0.045578	3.5110	0.13416	0.044707	2.7130	0.34258	0.10726
			3.5590	0.13126	0.043300	3.5590	0.12771	0.042561	2.7410	0.33356	0.10443
			3.6070	0.12363	0.040782	3.6070	0.12053	0.040168	2.7690	0.32280	0.10106
			3.6560	0.11624	0.038346	3.6560	0.11357	0.037848	2.7970	0.30712	0.096153
			3.7050	0.10881	0.035893	3.7050	0.10653	0.035502	2.8260	0.29645	0.092815
			3.7540	0.10365	0.034192	3.7540	0.10170	0.033891	2.8540	0.28594	0.089525
			3.8040	0.095248	0.031421	3.8040	0.093657	0.031212	2.8830	0.27167	0.085056
			3.8540	0.091134	0.030064	3.8540	0.089804	0.029928	2.9120	0.26114	0.081758
			3.9040	0.085590	0.028235	3.9040	0.085730	0.028571	2.9410	0.25423	0.079597
			3.9550	0.081195	0.026786	3.9550	0.080359	0.026781	2.9700	0.24685	0.077286
			4.0060	0.077212	0.027443	4.0060	0.078743	0.028234	2.9990	0.23914	0.074871
			4.0570	0.073825	0.026240	4.0570	0.073386	0.026314	3.0280	0.22807	0.071404
			4.1090	0.069918	0.024851	4.1090	0.069659	0.024977	3.0580	0.22166	0.069399
			4.1610	0.066070	0.023483	4.1610	0.067780	0.024303	3.0870	0.21323	0.066760
			4.2130	0.064388	0.022886	4.2130	0.064436	0.023105	3.1170	0.20386	0.063827
			4.2660	0.058269	0.020711	4.2660	0.058446	0.020957	3.1470	0.19729	0.061769
			4.3190	0.057156	0.020315	4.3190	0.057461	0.020604	3.1770	0.18964	0.059373
			4.3720	0.052351	0.018607	4.3720	0.052750	0.018914	3.2070	0.18387	0.057567
			4.4260	0.049349	0.017541	4.4260	0.049842	0.017872	3.2370	0.17357	0.054343
			4.4800	0.047078	0.016733	4.4800	0.047658	0.017089	3.2680	0.18379	0.057543
			4.5340	0.044853	0.015942	4.5340	0.045511	0.016319	3.2980	0.17687	0.055377
			4.5880	0.041793	0.014855	4.5880	0.042505	0.015241	3.3290	0.16741	0.052413
			4.6430	0.038801	0.013791	4.6430	0.039556	0.014184	3.3600	0.16148	0.050556
			4.6990	0.036162	0.012853	4.6990	0.036954	0.013251	3.3910	0.15530	0.048624
			4.7540	0.034039	0.012099	4.7540	0.034868	0.012503	3.4220	0.14990	0.046930
			4.8100	0.031656	0.011252	4.8100	0.032505	0.011656	3.4530	0.14540	0.045523
			4.8660	0.029606	0.010523	4.8660	0.030473	0.010927	3.4840	0.13948	0.043669
			4.9230	0.027621	0.0098177	4.9230	0.028499	0.010219	3.5160	0.13419	0.042013
			4.9800	0.025680	0.0091278	4.9800	0.026562	0.0095246	3.5470	0.13001	0.040705
			5.0370	0.024054	0.0085499	5.0370	0.024941	0.0089435	3.5790	0.12293	0.038487
			5.0940	0.022478	0.0079901	5.0940	0.023365	0.0083784	3.6110	0.11776	0.036870
			5.1520	0.020622	0.0073303	5.1520	0.021489	0.0077058	3.6430	0.11390	0.035662
			5.2100	0.019143	0.0068044	5.2100	0.019997	0.0071709	3.6750	0.10911	0.034161
			5.2690	0.018026	0.0064077	5.2690	0.018879	0.0067699	3.7070	0.10413	0.032601
			5.3280	0.016752	0.0059546	5.3280	0.017589	0.0063073	3.7400	0.099763	0.031235
			5.3870	0.015511	0.0055136	5.3870	0.016328	0.0058550	3.7720	0.095756	0.029980
			5.4460	0.014295	0.0050815	5.4460	0.015086	0.0054098	3.8050	0.089955	0.028164
			5.5060	0.013402	0.0047638	5.5060	0.014180	0.0050847	3.8380	0.086723	0.027152
			5.5660	0.012388	0.0044033	5.5660	0.013140	0.0047121	3.8710	0.082906	0.025957
			5.6270	0.011412	0.0040567	5.6270	0.012138	0.0043526	3.9040	0.080247	0.025125
			5.6870	0.010622	0.0037756	5.6870	0.011326	0.0040615	3.9370	0.076675	0.024006
			5.7480	0.0096595	0.0034336	5.7480	0.010327	0.0037033	3.9700	0.073104	0.022888
			5.8100	0.0089999	0.0031992	5.8100	0.0096478	0.0034597	4.0040	0.069731	0.021832
			5.8710	0.0083096	0.0029538	5.8710	0.0089311	0.0032028	4.0370	0.067888	0.021255
			5.9340	0.0076444	0.0027173	5.9340	0.0082385	0.0029543	4.0710	0.064653	0.020242
			5.9960	0.0071385	0.0025375	5.9960	0.0077138	0.0027662	4.1050	0.062067	0.019433
			6.0590	0.0066074	0.0023488	6.0590	0.0071594	0.0025674	4.1390	0.059446	0.018612
			6.1220	0.0061516	0.0021868	6.1220	0.0066836	0.0023968	4.1730	0.056865	0.017804
			6.1850	0.0056182	0.0019971	6.1850	0.0061206	0.0021949	4.2070	0.053934	0.016886
			6.2490	0.0052484	0.0018657	6.2490	0.0057335	0.0020561	4.2420	0.051698	0.016186
			6.3130	0.0048511	0.0017245	6.3130	0.0053141	0.0019057	4.2760	0.049550	0.015514
			6.3770	0.0044982	0.0015990	6.3770	0.0049411	0.0017720	4.3110	0.046398	0.014527
			6.4420	0.0040379	0.0014354	6.4420	0.0044479	0.0015951	4.3460	0.040647	0.012726
			6.5070	0.0037970	0.0013498	6.5070	0.0041943	0.0015041	4.3810	0.038867	0.012169
			6.5720	0.0035210	0.0012517	6.5720	0.0039003	0.0013987	4.4160	0.037039	0.011597
			6.6380	0.0031790	0.0011301	6.6380	0.0035315	0.0012664	4.4510	0.035510	0.011118
			6.7040	0.0029410	0.0010455	6.7040	0.0032764	0.0011750	4.4860	0.034180	0.010702
			6.7700	0.0026844	0.00095430	6.7700	0.0029991	0.0010755	4.5210	0.032174	0.010074
			6.8370	0.0024835	0.00088285	6.8370	0.0027826	0.00099790	4.5570	0.030428	0.0095267
			6.9040	0.0023036	0.00081893	6.9040	0.0025885	0.00092832	4.5930	0.029143	0.0091246
			6.9710	0.0021111	0.00075048	6.9710	0.0023790	0.00085319	4.6290	0.027936	0.0087465
			7.0380	0.0019627	0.00069776	7.0380	0.0022183	0.00079553	4.6650	0.026650	0.0083441
			7.1060	0.0017587	0.00062519	7.1060	0.0019934	0.00071490	4.7010	0.025581	0.0080093
			7.1750	0.0016537	0.00058787	7.1750	0.0018800	0.00067422	4.7370	0.024542	0.0076840
			7.2400	0.0016166	0.00057471	7.2400	0.0018430	0.00066096	4.7730	0.023316	0.0073001
			7.3060	0.0014978	0.00053246	7.3060	0.0017124	0.00061413	4.8100	0.022326	0.0069902
			7.3710	0.0013721	0.00048781				4.8460	0.021470	0.0067221
			7.4370	0.0012487	0.00044394				4.8830	0.020168	0.0063145
			7.5040	0.0011644	0.00041395				4.9200	0.019275	0.0060350
									4.9570	0.018491	0.0061474
									4.9940	0.017512	0.0058220
									5.0310	0.016503	0.0054867
									5.0690	0.015692	0.0052168
									5.1060	0.014990	0.0049837
									5.1440	0.014099	0.0046872
									5.1820	0.013533	0.0044992
									5.2200	0.012829	0.0042651
									5.2580	0.012207	0.0040585
									5.2960	0.011689	0.0038861
									5.3340	0.011008	0.0036596
									5.3730	0.010512	0.0034947
									5.4110	0.0099798	0.0033179
									5.4500	0.0093962	0.0031239
									5.4890	0.0089857	0.0029874
									5.5280	0.0085983	0.0028586
									5.5670	0.0081789	0.0027192
									5.6060	0.0077092	0.0025630
									5.6460	0.0072839	0.0024216
									5.6850	0.0070781	0.0023532
									5.7250	0.0066350	0.0022059
									5.7650	0.0063594	0.0021143
									5.8040	0.0060820	0.0020221
									5.8440	0.0056632	0.0018828
									5.8850	0.0053884	0.0017914
									5.9250	0.0051771	0.0017212
									5.9650	0.0048435	0.0016103
									6.0060	0.0045289	0.0015057
									6.0470	0.0043619	0.0014502
									6.0870	0.0041161	0.0013685
									6.1280	0.0038696	0.0012865
									6.1690	0.0036325	0.0012077
									6.2110	0.0034348	0.0011420
									6.2520	0.0033278	0.0011064
									6.2930	0.0031048	0.0010322
									6.3350	0.0029151	0.00096916
									6.3770	0.0027568	0.00091655
									6.4190	0.0026204	0.00087118
									6.4610	0.0024989	0.00083079
									6.5030	0.0023718	0.00078856
									6.5450	0.0022529	0.00074902
									6.5870	0.0021228	0.00070577
									6.6300	0.0020087	0.00066784
									6.6720	0.0019024	0.00063249
									6.7150	0.0018025	0.00059927
									6.7580	0.0017035	0.00056636
									6.8010	0.0016183	0.00053802
									6.8440	0.0015044	0.00050017
									6.8880	0.0014364	0.00051397
									6.9310	0.0013631	0.00048776
									6.9750	0.0012851	0.00045983
									7.0180	0.0012259	0.00043867
									7.0620	0.0011439	0.00040932
									7.1060	0.0010875	0.00038914
									7.1500	0.0010202	0.00036504
									7.1940	0.00095572	0.00034198
									7.2390	0.00090220	0.00032283
									7.2830	0.00085396	0.00030557
									7.3280	0.00080092	0.00028659
									7.3720	0.00075724	0.00027096
									7.4170	0.00071318	0.00025519
									7.4620	0.00067298	0.00024081
									7.5070	0.00062674	0.00022426
									7.5530	0.00059451	0.00021273
									7.5980	0.00055875	0.00019993
									7.6440	0.00052871	0.00018918
									7.6890	0.00049806	0.00017822
									7.7350	0.00046547	0.00016656
									7.7810	0.00044385	0.00015882
									7.8270	0.00041872	0.00014983
									7.8730	0.00039777	0.00014233
									7.9190	0.00037160	0.00013297
									7.9660	0.00034947	0.00012505
									8.0120	0.00033241	0.00011894
									8.0590	0.00031001	0.00011093
									8.1060	0.00029264	0.00010471
									8.1530	0.00027749	9.9292e-05
									8.2000	0.00025896	9.2664e-05
									8.2470	0.00024623	8.8109e-05
									8.2940	0.00022857	8.1790e-05
									8.3420	0.00021771	7.7903e-05
									8.3890	0.00020581	7.3645e-05
									8.4370	0.00019289	6.9023e-05
									8.4850	0.00018067	6.4649e-05
									8.5330	0.00017060	6.1044e-05
									8.5810	0.00016117	5.7672e-05
									8.6290	0.00015023	5.3758e-05
									8.6780	0.00014171	5.0708e-05
									8.7260	0.00013213	4.7279e-05
									8.7750	0.00012509	4.4760e-05
									8.8230	0.00011774	4.2131e-05
									8.8720	0.00010932	3.9118e-05
									8.9210	0.00010328	3.6955e-05
									8.9700	9.5767e-05	3.4268e-05
